Copper (I) hydride, CuH, SFP ISIS, Inorganic Chemistry, 54 (2015) 2213-2220
C (CM-1)   COUNTS           ERROR
24.195	0.126001		0.0313928
24.316	0.0968339		0.0268006
24.4376	0.122456		0.0299266
24.5597	0.110603		0.0288141
24.6825	0.085786		0.0262048
24.806	0.106045		0.0282896
24.93 	0.121533		0.0298732
25.0546	0.117129		0.0288634
25.1799	0.142302		0.0311797
25.3058	0.116934		0.0291481
25.4323	0.12332		0.0294167
25.5595	0.176831		0.0344805
25.6873	0.100641		0.0257387
25.8157	0.06327		0.0204551
25.9448	0.0819418		0.0237648
26.0745	0.108031		0.0273536
26.2049	0.129651		0.0295843
26.3359	0.103362		0.0258002
26.4676	0.0952504		0.0244495
26.5999	0.0784153		0.02155
26.7329	0.0961901		0.0244912
26.8666	0.0633578		0.0197783
27.0009	0.13262		0.0286498
27.136	0.0890186		0.0230455
27.2716	0.110267		0.024832
27.408	0.0776259		0.0204103
27.545	0.068583		0.0193803
27.6828	0.0967142		0.0231847
27.8212	0.0894583		0.0221846
27.9603	0.105298		0.0235763
28.1001	0.0884268		0.0222589
28.2406	0.0966631		0.0229033
28.3818	0.0641064		0.01754
28.5237	0.0875592		0.0215316
28.6663	0.0721108		0.01921
28.8096	0.0951374		0.0218108
28.9537	0.0647082		0.0172626
29.0985	0.0987118		0.021872
29.2439	0.0789613		0.0196485
29.3902	0.0805156		0.0197199
29.5371	0.0723845		0.018784
29.6848	0.0840134		0.0198077
29.8332	0.0766324		0.0188462
29.9824	0.0818179		0.0192916
30.1323	0.0751937		0.0188452
30.283	0.0886413		0.01995
30.4344	0.0906597		0.0205494
30.5866	0.0991142		0.0206082
30.7395	0.0822987		0.0190602
30.8932	0.0586396		0.0155628
31.0476	0.0630636		0.0161338
31.2029	0.0929315		0.0198407
31.3589	0.0966477		0.0196961
31.5157	0.0563222		0.0150233
31.6733	0.0648227		0.0161747
31.8316	0.0625745		0.0158282
31.9908	0.0821788		0.0181662
32.1508	0.0930219		0.0190434
32.3115	0.0565754		0.0149169
32.4731	0.0622689		0.014779
32.6354	0.0909348		0.0181289
32.7986	0.0845802		0.0175741
32.9626	0.0767539		0.0162819
33.1274	0.0893414		0.0180662
33.293	0.0535199		0.0143514
33.4595	0.0579752		0.0145337
33.6268	0.0689561		0.0158541
33.7949	0.0903778		0.0173488
33.9639	0.062623		0.0148141
34.1337	0.0723138		0.016092
34.3044	0.067187		0.0148819
34.4759	0.0844204		0.0162636
34.6483	0.0444152		0.0120868
34.8216	0.0722139		0.0151812
34.9957	0.0777784		0.0157439
35.1706	0.0567782		0.0129476
35.3465	0.0683835		0.0145045
35.5232	0.0572724		0.0133252
35.7008	0.0502246		0.0124975
35.8793	0.0674198		0.0143869
36.0587	0.0529567		0.0123386
36.239	0.0623559		0.0134508
36.4202	0.0579646		0.0131444
36.6023	0.0695495		0.0143777
36.7853	0.0579401		0.0130359
36.9693	0.0647595		0.0131906
37.1541	0.0614577		0.012989
37.3399	0.0496598		0.0113147
37.5266	0.0591918		0.0126561
37.7142	0.0682306		0.0134983
37.9028	0.0480147		0.0112751
38.0923	0.0599836		0.012347
38.2828	0.0664672		0.0131894
38.4742	0.0659991		0.0130257
38.6666	0.0652377		0.0126601
38.8599	0.066008		0.0129513
39.0542	0.0604804		0.0122713
39.2495	0.067925		0.0129947
39.4457	0.0753872		0.0136138
39.6429	0.062429		0.0122685
39.8411	0.0566153		0.0116734
40.0403	0.0540215		0.0113217
40.2406	0.0429846		0.00985981
40.4418	0.0943412		0.0148958
40.644	0.0749836		0.0131104
40.8472	0.0523428		0.010792
41.0514	0.0618073		0.0116189
41.2567	0.0474205		0.0101682
41.463	0.0605214		0.0115149
41.6703	0.0641404		0.0119008
41.8786	0.0564225		0.0108403
42.088	0.0642758		0.0116549
42.2985	0.0556112		0.0109332
42.51	     0.056103		0.0107336
42.7225	0.0499817		0.0101066
42.9361	0.0633277		0.0115502
43.1508	0.0600767		0.0111937
43.3665	0.0490935		0.00990175
43.5834	0.0723507		0.0121105
43.8013	0.0558935		0.01059
44.0203	0.0542425		0.0103537
44.2404	0.0618499		0.0109571
44.4616	0.0676999		0.0113607
44.6839	0.0804281		0.0124442
44.9073	0.0523383		0.00994379
45.1319	0.0700492		0.0117121
45.3575	0.0666489		0.0111921
45.5843	0.0745989		0.011796
45.8122	0.0606307		0.0106485
46.0413	0.0653477		0.010822
46.2715	0.0464468		0.00916385
46.5029	0.0735818		0.0114323
46.7354	0.0514977		0.00947462
46.9691	0.0549825		0.00973377
47.2039	0.0567546		0.00990001
47.4399	0.0606493		0.0103408
47.6771	0.0531494		0.00954117
47.9155	0.0617959		0.0101915
48.1551	0.0693549		0.0108578
48.3959	0.0648293		0.010517
48.6378	0.0687498		0.0106688
48.881	0.0809108		0.0115889
49.1254	0.0647536		0.0103858
49.3711	0.0632314		0.0102748
49.6179	0.067416		0.0104475
49.866	0.0653959		0.0102792
50.1153	0.0660799		0.0102919
50.3659	0.0671503		0.0103362
50.6177	0.0785483		0.0111802
50.8708	0.0770749		0.0110662
51.1252	0.0866036		0.0116869
51.3808	0.0832332		0.0113412
51.6377	0.0705095		0.0103977
51.8959	0.071684		0.0104332
52.1554	0.0614135		0.00968711
52.4162	0.083793		0.0111506
52.6782	0.0759773		0.0107163
52.9416	0.0608986		0.00955792
53.2063	0.0544329		0.00899167
53.4724	0.0965865		0.0119703
53.7397	0.076979		0.0107274
54.0084	0.0695833		0.0100598
54.2785	0.0599686		0.00928291
54.5499	0.0714641		0.0100256
54.8226	0.0595417		0.0091445
55.0967	0.0654324		0.00974631
55.3722	0.0656288		0.0096324
55.6491	0.079695		0.0106782
55.9273	0.0798555		0.0105197
56.207	0.0790283		0.0104671
56.488	0.0852325		0.0108399
56.7704	0.0760996		0.010242
57.0543	0.0748175		0.0101157
57.3396	0.0758487		0.0101416
57.6263	0.065732		0.00943228
57.9144	0.0778546		0.0101849
58.204	0.0897745		0.0110501
58.495	0.0743287		0.00994221
58.7874	0.0708498		0.00968952
59.0814	0.0634793		0.0091409
59.3768	0.0564894		0.00856878
59.6737	0.0833117		0.0104252
59.972	0.0800901		0.0101257
60.2719	0.0974651		0.0111698
60.5733	0.0805448		0.0101016
60.8761	0.0795103		0.0100287
61.1805	0.0909068		0.0107323
61.4864	0.0779703		0.00987521
61.7938	0.0905237		0.0106214
62.1028	0.0918721		0.0106976
62.4133	0.0867644		0.0102831
62.7254	0.0920369		0.0105707
63.039	0.0952735		0.0107486
63.3542	0.0984054		0.0109443
63.671	0.0943178		0.0106359
63.9893	0.0695928		0.0090273
64.3093	0.0820142		0.00982929
64.6308	0.0806979		0.00970107
64.954	0.0901899		0.0102596
65.2788	0.0808511		0.0096329
65.6052	0.0795176		0.00961128
65.9332	0.101622		0.0108401
66.2628	0.114761		0.0114007
66.5942	0.0951318		0.010303
66.9271	0.0848368		0.00970428
67.2618	0.0962249		0.0103716
67.5981	0.102642		0.0107223
67.9361	0.0947868		0.0102048
68.2757	0.0963191		0.0102511
68.6171	0.10617		0.0107664
68.9602	0.111458		0.0110263
69.305	0.112308		0.0110301
69.6515	0.116058		0.011162
69.9998	0.12531		0.0116032
70.3498	0.127727		0.0116863
70.7015	0.110064		0.0107764
71.0551	0.112763		0.0108815
71.4103	0.0909348		0.00973079
71.7674	0.109322		0.0106238
72.1262	0.120987		0.0111777
72.4868	0.117375		0.0110461
72.8493	0.124518		0.0112539
73.2135	0.120902		0.0110657
73.5796	0.124181		0.0112186
73.9475	0.114684		0.0106963
74.3172	0.107757		0.0103316
74.6888	0.104854		0.0101876
75.0623	0.112756		0.0105221
75.4376	0.115733		0.0106716
75.8148	0.122415		0.0108733
76.1938	0.11552		0.0105884
76.5748	0.115497		0.0105562
76.9577	0.105113		0.0100009
77.3425	0.108817		0.0101728
77.7292	0.120861		0.0106808
78.1178	0.110514		0.0102052
78.5084	0.131358		0.0110896
78.901	0.127095		0.0108973
79.2955	0.0984756		0.0095398
79.6919	0.112302		0.0101772
80.0904	0.108042		0.00996002
80.4908	0.123024		0.0106682
80.8933	0.116152		0.0102671
81.2978	0.106172		0.0098018
81.7043	0.110618		0.00998401
82.1128	0.115992		0.0101685
82.5233	0.111525		0.00995856
82.936	0.108784		0.00983653
83.3506	0.102227		0.00948372
83.7674	0.114993		0.0100492
84.1862	0.115171		0.0100489
84.6072	0.0975201		0.00924068
85.0302	0.0970636		0.00916239
85.4553	0.109952		0.0097599
85.8826	0.111315		0.00982315
86.312	0.111154		0.00974776
86.7436	0.0839998		0.00848101
87.1773	0.0985799		0.00913103
87.6132	0.103971		0.00940775
88.0513	0.09471		0.00901471
88.4915	0.0844924		0.00840906
88.934	0.0915802		0.00873299
89.3787	0.0997566		0.00913598
89.8255	0.0866871		0.00845006
90.2747	0.114845		0.00975985
90.726	0.0916632		0.00866037
91.1797	0.0917764		0.00860123
91.6356	0.102384		0.00908812
92.0938	0.0905749		0.00850581
92.5542	0.0789663		0.00792704
93.017	0.0956806		0.00875008
93.4821	0.102055		0.00903117
93.9495	0.104167		0.00902462
94.4192	0.0926685		0.00852921
94.8913	0.0858405		0.00815244
95.3658	0.0864163		0.00813272
95.8426	0.0868381		0.00816307
96.3218	0.096045		0.00857903
96.8034	0.0965358		0.0085212
97.2875	0.100402		0.00868913
97.7739	0.0862355		0.0080257
98.2628	0.102177		0.00869767
98.7541	0.0900929		0.008143
99.2478	0.106554		0.00881626
99.7441	0.0904971		0.00806489
100.243	0.102298		0.00862542
100.744	0.0915499		0.00806069
101.248	0.0908698		0.00801527
101.754	0.104925		0.00862143
102.263	0.0857668		0.0077305
102.774	0.0833872		0.00762418
103.288	0.0796802		0.00743867
103.804	0.0743466		0.00715507
104.323	0.0789824		0.00734328
104.845	0.059748		0.00639704
105.369	0.0663731		0.00672132
105.896	0.0766155		0.00723187
106.426	0.0830388		0.00750885
106.958	0.0849027		0.00755097
107.492	0.0824958		0.00739841
108.03	0.0769756		0.00716978
108.57	0.073312		0.0069656
109.113	0.0683254		0.00671867
109.659	0.0701524		0.00678782
110.207	0.0733022		0.00686777
110.758	0.0739859		0.00693302
111.312	0.0716576		0.00682464
111.868	0.0648427		0.00643688
112.428	0.0606771		0.00623547
112.99	0.0587788		0.00612395
113.555	0.0777276		0.00698654
114.122	0.0637957		0.00635662
114.693	0.0612247		0.00619374
115.266	0.0677073		0.00652957
115.843	0.0674277		0.00645952
116.422	0.0659853		0.00635445
117.004	0.0641842		0.00626893
117.589	0.0566149		0.00588474
118.177	0.0590811		0.00598138
118.768	0.0638984		0.00617501
119.362	0.0668182		0.00632462
119.959	0.0578492		0.00586131
120.558	0.0669677		0.00631469
121.161	0.0618495		0.00602172
121.767	0.0658968		0.0062197
122.376	0.0639222		0.00609436
122.988	0.0590181		0.00580875
123.603	0.0599907		0.00587356
124.221	0.0507767		0.00539973
124.842	0.0629		0.00598562
125.466	0.0587843		0.00579091
126.093	0.062256		0.00595123
126.724	0.0546204		0.00556042
127.357	0.0534677		0.00547684
127.994	0.0568541		0.00558683
128.634	0.0584667		0.00566654
129.277	0.0596212		0.00573019
129.924	0.0585407		0.00564947
130.573	0.0612474		0.00577143
131.226	0.0601628		0.00567998
131.882	0.0473544		0.00504019
132.542	0.0480205		0.00505426
133.204	0.0562891		0.00546288
133.87	0.0602629		0.00564909
134.54	0.044889		0.00484582
135.213	0.0562712		0.00541238
135.889	0.0554265		0.00536823
136.568	0.0617055		0.00567016
137.251	0.0553969		0.00532989
137.937	0.0620336		0.0056683
138.627	0.0628042		0.00567613
139.32	0.056389		0.00530313
140.017	0.0501681		0.00502985
140.717	0.0648931		0.0057238
141.42	0.0556011		0.00526146
142.127	0.0538277		0.00516806
142.838	0.0533805		0.00512283
143.552	0.0480332		0.00487635
144.27	0.0557136		0.00525196
144.991	0.059987		0.00540995
145.716	0.0538891		0.00511097
146.445	0.0533259		0.00505029
147.177	0.0573466		0.00527425
147.913	0.0461026		0.00469856
148.652	0.0612795		0.00540981
149.396	0.0600903		0.00532376
150.143	0.0574981		0.00518336
150.893	0.0555871		0.00510199
151.648	0.0554261		0.00508776
152.406	0.0549478		0.00505583
153.168	0.0587156		0.00520489
153.934	0.050441		0.0047985
154.704	0.0511979		0.00481145
155.477	0.0535487		0.00494058
156.255	0.0539963		0.00495852
157.036	0.0487024		0.00469711
157.821	0.0565753		0.00504558
158.61	0.0559986		0.00499247
159.403	0.0559128		0.00497307
160.2 	0.058277		0.0050902
161.001	0.0567201		0.00498708
161.806	0.0610468		0.0051678
162.615	0.0515343		0.00474958
163.428	0.0598494		0.00509973
164.245	0.0484628		0.00457239
165.067	0.0584865		0.0050104
165.892	0.0545181		0.00484397
166.721	0.0602942		0.00506912
167.555	0.0550228		0.00483997
168.393	0.0541264		0.00480481
169.235	0.0567068		0.00490162
170.081	0.0549122		0.0048181
170.931	0.049029		0.00453685
171.786	0.0547075		0.0047854
172.645	0.0499849		0.00455357
173.508	0.0521598		0.0046558
174.376	0.0657327		0.00519938
175.248	0.0565288		0.00483989
176.124	0.0486628		0.0044791
177.004	0.0564796		0.00481561
177.89	0.0497905		0.00450447
178.779	0.0594224		0.00490252
179.673	0.0505398		0.00451091
180.571	0.0548283		0.00471416
181.474	0.0524425		0.00459537
182.381	0.0578566		0.00479398
183.293	0.04792		0.00437563
184.21	0.0521784		0.00454609
185.131	0.0589583		0.00484316
186.057	0.0582987		0.00479835
186.987	0.0599764		0.00482817
187.922	0.050432		0.00443198
188.861	0.0538914		0.00455327
189.806	0.0606776		0.00486344
190.755	0.0522895		0.00448492
191.708	0.05129		0.00442235
192.667	0.0574609		0.00466405
193.63	0.0551913		0.00458736
194.598	0.05369		0.00451445
195.571	0.0427052		0.0040234
196.549	0.050629		0.00437764
197.532	0.056351		0.0046046
198.52	0.0560529		0.00457976
199.512	0.054766		0.00450834
200.51	0.0539955		0.00445736
201.512	0.058129		0.0046281
202.52	0.061575		0.00475709
203.533	0.0634953		0.00482502
204.55	0.0535996		0.00443053
205.573	0.0597911		0.00467475
206.601	0.0624179		0.00475211
207.634	0.0558952		0.00449056
208.672	0.0532669		0.00437624
209.715	0.0574213		0.00451796
210.764	0.0606526		0.00465739
211.818	0.0556721		0.00444744
212.877	0.0602614		0.00461728
213.941	0.0554326		0.00441244
215.011	0.0520204		0.0042756
216.086	0.0561325		0.00442968
217.166	0.0576111		0.00446441
218.252	0.0554186		0.00438951
219.344	0.0569495		0.0044353
220.44	0.0510251		0.00419177
221.542	0.0523575		0.0042345
222.65	0.0539176		0.00429254
223.763	0.0469905		0.00401036
224.882	0.0676515		0.00478609
226.007	0.0542903		0.00428831
227.137	0.049369		0.00408708
228.272	0.0521011		0.0041744
229.414	0.0510324		0.00415263
230.561	0.0465165		0.00394728
231.714	0.0529661		0.00420511
232.872	0.05584		0.00431046
234.037	0.0514605		0.00412586
235.207	0.0463541		0.00392191
236.383	0.0561925		0.00429878
237.565	0.0597069		0.00443381
238.753	0.044163		0.00380541
239.946	0.0492595		0.00401285
241.146	0.047921		0.00395869
242.352	0.0430504		0.00373162
243.564	0.0502609		0.00403834
244.781	0.0480305		0.00393839
246.005	0.0482623		0.00395046
247.235	0.0395474		0.00357705
248.471	0.042529		0.00369283
249.714	0.041889		0.00364155
250.962	0.0395479		0.00356142
252.217	0.0387891		0.00352091
253.478	0.0358306		0.00336832
254.746	0.0410642		0.00361071
256.019	0.0325554		0.00319964
257.299	0.0359173		0.00335992
258.586	0.0344863		0.00328148
259.879	0.0379581		0.00344107
261.178	0.0346324		0.00328692
262.484	0.0339566		0.0032479
263.797	0.0298058		0.00301689
265.116	0.0318929		0.0031361
266.441	0.0308553		0.00307763
267.773	0.030135		0.00304452
269.112	0.0314375		0.00310185
270.458	0.0317632		0.00309933
271.81	0.032061		0.00312818
273.169	0.0343999		0.003224
274.535	0.0295115		0.00299514
275.908	0.0298554		0.00298098
277.287	0.0333986		0.00315805
278.674	0.0341896		0.00320017
280.067	0.0345513		0.00321828
281.467	0.0293995		0.00296032
282.875	0.0290153		0.00294822
284.289	0.0245428		0.00270589
285.71	0.0226411		0.00256896
287.139	0.0300437		0.00297188
288.575	0.0318546		0.00305295
290.018	0.0268769		0.00281526
291.468	0.0271675		0.00283202
292.925	0.0304087		0.00297265
294.39	0.0249688		0.00270833
295.862	0.0267287		0.0027769
297.341	0.0291212		0.00289665
298.828	0.0245884		0.00266339
300.322	0.0253616		0.00271947
301.823	0.0283849		0.00287361
303.332	0.0299695		0.00294204
304.849	0.0267392		0.00278467
306.373	0.0237664		0.00261005
307.905	0.0252675		0.00269324
309.445	0.0291266		0.00288139
310.992	0.0238261		0.0026031
312.547	0.0213419		0.00246868
314.11	0.0219214		0.00247765
315.68	0.0278694		0.00279896
317.259	0.0289439		0.0028663
318.845	0.0258273		0.00269012
320.439	0.0240074		0.00259425
322.041	0.0236308		0.00257326
323.652	0.0271572		0.00276851
325.27	0.026644		0.00273018
326.896	0.0263121		0.0027205
328.531	0.0231443		0.00253233
330.173	0.0198711		0.00233951
331.824	0.0178657		0.00223352
333.483	0.0221843		0.0024801
335.151	0.0233649		0.00254064
336.826	0.0232623		0.00254167
338.511	0.0199061		0.00235066
340.203	0.0237872		0.00256461
341.904	0.0233544		0.00253782
343.614	0.0180086		0.00222066
345.332	0.022586		0.00249283
347.058	0.0226613		0.00250437
348.794	0.0243713		0.00258135
350.538	0.0217497		0.00242399
352.29	0.0215136		0.00242697
354.052	0.0200478		0.00232746
355.822	0.0273618		0.00273741
357.601	0.0249353		0.00261972
359.389	0.0205849		0.0023798
361.186	0.022871		0.00250001
362.992	0.0240257		0.00255053
364.807	0.0256281		0.00262706
366.631	0.0244108		0.00257466
368.464	0.0207662		0.00236612
370.307	0.021389		0.00240174
372.158	0.0242758		0.00256345
374.019	0.0235173		0.00251778
375.889	0.0258564		0.00263249
377.768	0.0252887		0.00260626
379.657	0.0217123		0.00240772
381.556	0.0220819		0.00243287
383.463	0.022796		0.00247872
385.381	0.0254987		0.00261939
387.308	0.0247044		0.0025737
389.244	0.0258908		0.00262487
391.19	0.0253902		0.00259012
393.146	0.0263767		0.00265931
395.112	0.02479		0.00258204
397.088	0.0274238		0.00270026
399.073	0.0242283		0.00253862
401.068	0.0291305		0.00278495
403.074	0.0299383		0.00281605
405.089	0.0280052		0.0027346
407.115	0.0278804		0.00270953
409.15	0.0279453		0.00271876
411.196	0.0271997		0.00268487
413.252	0.0281438		0.00272466
415.318	0.0293894		0.00279309
417.395	0.0270451		0.00268504
419.482	0.0285666		0.00275029
421.579	0.0337361		0.00299245
423.687	0.0281254		0.00272477
425.805	0.0286836		0.0027536
427.934	0.0295521		0.00280713
430.074	0.0309552		0.0028734
432.224	0.0313459		0.00288052
434.386	0.0339425		0.00299563
436.557	0.0295534		0.00279247
438.74	0.0304673		0.00283831
440.934	0.0302028		0.00283248
443.139	0.0341991		0.00300925
445.354	0.0382702		0.00318141
447.581	0.0316315		0.0028781
449.819	0.0312545		0.00287153
452.068	0.0297171		0.00279531
454.328	0.03172		0.0028776
456.6 	0.0313222		0.00285719
458.883	0.0301176		0.00280694
461.178	0.0369616		0.00311391
463.483	0.0340699		0.00299867
465.801	0.0341188		0.00300759
468.13	0.0276038		0.00270284
470.47	0.03428		0.00300792
472.823	0.0360946		0.00307651
475.187	0.040692		0.00326374
477.563	0.0321787		0.00290449
479.951	0.0341869		0.00299957
482.35	0.0330559		0.00294777
484.762	0.0404776		0.00326921
487.186	0.0381499		0.00317849
489.622	0.0353147		0.00304849
492.07	0.0389424		0.00321004
494.53	0.0359174		0.00307694
497.003	0.0327849		0.00293248
499.488	0.0386192		0.00320262
501.986	0.0358633		0.00306954
504.495	0.0298827		0.00281172
507.018	0.0372905		0.00314145
509.553	0.0340952		0.00300904
512.101	0.0411452		0.00331041
514.661	0.0341995		0.00301285
517.235	0.034748		0.00305258
519.821	0.031389		0.00288376
522.42	0.0321878		0.00292146
525.032	0.0367682		0.00312805
527.657	0.0397533		0.00325318
530.295	0.035103		0.00306629
532.947	0.0364095		0.00311122
535.612	0.0387061		0.00321781
538.29	0.0377327		0.00318419
540.981	0.0370292		0.0031492
543.686	0.0381868		0.00321563
546.404	0.0356979		0.00310917
549.136	0.0403276		0.00330574
551.882	0.0381073		0.00320158
554.642	0.0337768		0.00302967
557.415	0.0385972		0.00323771
560.202	0.0376093		0.00319087
563.003	0.0329713		0.00299425
565.818	0.0378696		0.00322461
568.647	0.0388557		0.0032569
571.49	0.0415537		0.00337209
574.348	0.0413261		0.00335751
577.219	0.0425922		0.00341842
580.105	0.0365883		0.00317759
583.006	0.0390746		0.00328365
585.921	0.0390004		0.00328004
588.851	0.0393039		0.00328783
591.795	0.0399099		0.00332844
594.754	0.0423167		0.00342257
597.728	0.0380573		0.00325816
600.716	0.0384519		0.00328878
603.72	0.0386342		0.00328748
606.738	0.0397952		0.00332642
609.772	0.0382557		0.0032797
612.821	0.0351881		0.00314215
615.885	0.0407615		0.00338751
618.965	0.0407629		0.00338746
622.059	0.0378694		0.00327822
625.17	0.0364805		0.00320943
628.296	0.043355		0.00350267
631.437	0.0404009		0.00338041
634.594	0.0421194		0.00346102
637.767	0.0497838		0.00376673
640.956	0.0429995		0.00349413
644.161	0.0437		0.00353803
647.382	0.0403723		0.00340789
650.618	0.0441961		0.00356609
653.872	0.0476596		0.0037152
657.141	0.0472444		0.0036992
660.427	0.044782		0.00361751
663.729	0.0439263		0.00357018
667.047	0.0438775		0.00357412
670.383	0.0433153		0.00356884
673.735	0.0379287		0.00334115
677.103	0.0487201		0.00379955
680.489	0.0413728		0.00349923
683.891	0.0447526		0.00365125
687.311	0.0458104		0.00369584
690.747	0.0397692		0.00343462
694.201	0.047013		0.00374389
697.672	0.0459696		0.00371539
701.16	0.0437792		0.0036193
704.666	0.0429776		0.00358232
708.189	0.040669		0.00350425
711.73	0.0459887		0.00373945
715.289	0.0421636		0.00356875
718.865	0.0522863		0.00399051
722.46	0.0495586		0.00390308
726.072	0.0463303		0.00376213
729.702	0.0477098		0.0038388
733.351	0.0440065		0.0036913
737.018	0.05156		0.0039916
740.703	0.0476989		0.00385105
744.406	0.0476469		0.00384032
748.128	0.0499962		0.00394796
751.869	0.0479107		0.00387422
755.628	0.0464437		0.0038136
759.406	0.0554174		0.00416642
763.204	0.0553554		0.00418041
767.02	0.0515286		0.00402462
770.855	0.0530608		0.00408514
774.709	0.0584324		0.00429142
778.582	0.0535698		0.00411833
782.475	0.0480421		0.00392576
786.388	0.057472		0.00429004
790.32	0.0639223		0.00452878
794.271	0.0565058		0.00426513
798.243	0.062677		0.00450324
802.234	0.0617458		0.00446991
806.245	0.0700906		0.00478053
810.276	0.0615372		0.00448132
814.328	0.0640377		0.00457964
818.399	0.0644795		0.00461055
822.491	0.0683927		0.00473517
826.604	0.071288		0.004861
830.737	0.0722367		0.00490294
834.89	0.0682698		0.00477049
839.065	0.0710347		0.00485289
843.26	0.0701171		0.00484151
847.476	0.071046		0.00487633
851.714	0.0746787		0.00501116
855.972	0.0709136		0.00489314
860.252	0.0814124		0.00525434
864.554	0.0902193		0.00554618
868.876	0.0828898		0.00531984
873.221	0.0875149		0.00547918
877.587	0.0877757		0.00548458
881.975	0.0886483		0.00553021
886.385	0.0851646		0.00539924
890.817	0.0949992		0.00573891
895.271	0.104567		0.00602806
899.747	0.101729		0.00594183
904.246	0.0999685		0.00590765
908.767	0.098991		0.00589127
913.311	0.118761		0.00646627
917.877	0.116335		0.00641244
922.467	0.113607		0.00633359
927.079	0.129712		0.00677921
931.714	0.137925		0.00701047
936.373	0.139306		0.00706008
941.055	0.150276		0.00734754
945.76	0.148756		0.00729925
950.489	0.156108		0.00749816
955.241	0.168109		0.00779378
960.018	0.170836		0.00788746
964.818	0.179346		0.00810665
969.642	0.185652		0.00822923
974.49	0.199641		0.00853919
979.362	0.202019		0.00862602
984.259	0.235446		0.00931563
989.181	0.232317		0.00927378
994.126	0.244354		0.00952144
999.097	0.235826		0.00937177
1004.09	0.230209		0.00928081
1009.11	0.223949		0.00916843
1014.16	0.238942		0.00947545
1019.23	0.244921		0.00961572
1024.33	0.231485		0.00935647
1029.45	0.228096		0.00930218
1034.59	0.225492		0.00925583
1039.77	0.221023		0.00919705
1044.97	0.224636		0.00927039
1050.19	0.217984		0.00916827
1055.44	0.230234		0.00943047
1060.72	0.221998		0.00927922
1066.02	0.219701		0.00925065
1071.35	0.239444		0.00966567
1076.71	0.227002		0.00941478
1082.09	0.240955		0.00971321
1087.5	0.229084		0.00949007
1092.94	0.207276		0.00904232
1098.41	0.202364		0.00893983
1103.9	0.210641		0.00914153
1109.42	0.214324		0.00923588
1114.96	0.198711		0.00889556
1120.54	0.208 		0.0091431
1126.14	0.198679		0.00892214
1131.77	0.186072		0.00864664
1137.43	0.170307		0.00829721
1143.12	0.177057		0.00847753
1148.83	0.177976		0.00850501
1154.58	0.16375		0.0081693
1160.35	0.157413		0.00801032
1166.15	0.138525		0.00751842
1171.98	0.138388		0.00756024
1177.84	0.136364		0.00749702
1183.73	0.131939		0.00739804
1189.65	0.120183		0.00708987
1195.6	0.114147		0.00691067
1201.58	0.111735		0.00685046
1207.59	0.111455		0.00682491
1213.62	0.113657		0.006925
1219.69	0.106986		0.00674148
1225.79	0.104423		0.00665477
1231.92	0.0848572		0.00601342
1238.08	0.0903266		0.0062101
1244.27	0.0929915		0.00632086
1250.49	0.0840185		0.00601806
1256.74	0.0856483		0.0060714
1263.03	0.0934264		0.00636238
1269.34	0.0881174		0.00621158
1275.69	0.0833096		0.00601332
1282.07	0.0750436		0.00569849
1288.48	0.0726247		0.00561126
1294.92	0.0751381		0.00574711
1301.39	0.0654741		0.00537089
1307.9	0.0607859		0.00518331
1314.44	0.0638787		0.0053124
1321.01	0.0638014		0.00532254
1327.62	0.0672632		0.00546647
1334.26	0.0602995		0.00521528
1340.93	0.0545286		0.00495691
1347.63	0.0588387		0.00517581
1354.37	0.0529997		0.00490534
1361.14	0.053127		0.00492045
1367.95	0.0503688		0.00476416
1374.79	0.040687		0.00430556
1381.66	0.0454322		0.00455904
1388.57	0.0495734		0.00478953
1395.51	0.058083		0.00515854
1402.49	0.0501688		0.00481278
1409.5	0.0529665		0.00495865
1416.55	0.0465562		0.00465055
1423.63	0.0394096		0.00427417
1430.75	0.0368865		0.00415428
1437.91	0.0406383		0.00438599
1445.09	0.041666		0.00445826
1452.32	0.0440396		0.00456193
1459.58	0.0607958		0.00532317
1466.88	0.0398512		0.00432437
1474.21	0.042686		0.00451988
1481.59	0.0448254		0.00463445
1488.99	0.049001		0.00482849
1496.44	0.0422319		0.00449291
1503.92	0.0383555		0.00429511
1511.44	0.0553484		0.00514772
1519  	0.0596449		0.00533454
1526.59	0.0620832		0.00546797
1534.22	0.0401291		0.00441866
1541.9	0.0467636		0.00476597
1549.61	0.0447624		0.00468057
1557.35	0.0480914		0.00486397
1565.14	0.0459378		0.00474013
1572.97	0.0493406		0.00492773
1580.83	0.0460393		0.00477716
1588.73	0.0446013		0.00468207
1596.68	0.0469661		0.00482173
1604.66	0.0444994		0.00470278
1612.69	0.0427401		0.00461244
1620.75	0.0465932		0.00479645
1628.85	0.0570143		0.00533164
1637  	0.0520092		0.00509885
1645.18	0.0552959		0.00528182
1653.41	0.0538377		0.00521961
1661.67	0.0527918		0.00515639
1669.98	0.0506663		0.00506308
1678.33	0.0534549		0.00521611
1686.72	0.0469738		0.00490085
1695.16	0.0497925		0.00503813
1703.63	0.0534293		0.00522405
1712.15	0.0463018		0.00485435
1720.71	0.049201		0.00502171
1729.32	0.049274		0.00502124
1737.96	0.04955		0.00505644
1746.65	0.0514456		0.00514788
1755.39	0.0570274		0.00544459
1764.16	0.0570002		0.00546464
1772.98	0.0632917		0.00574476
1781.85	0.0597921		0.00557419
1790.76	0.0621138		0.00569456
1799.71	0.064988		0.00584024
1808.71	0.0793311		0.00645348
1817.75	0.0749003		0.0062457
1826.84	0.074952		0.00626727
1835.98	0.0778431		0.00639725
1845.16	0.0759504		0.00635622
1854.38	0.0792501		0.00647629
1863.65	0.0786743		0.0064746
1872.97	0.0758999		0.00636479
1882.34	0.074594		0.0063194
1891.75	0.0924408		0.0070269
1901.21	0.0787119		0.00648886
1910.71	0.0864537		0.00680801
1920.27	0.0852495		0.00679578
1929.87	0.0843246		0.00675044
1939.52	0.0893207		0.00693199
1949.22	0.0970485		0.00724165
1958.96	0.09843		0.0072994
1968.76	0.101693		0.00744388
1978.6	0.103165		0.00750441
1988.49	0.109342		0.00771117
1998.44	0.114784		0.00792474
2008.43	0.12194		0.00817517
2018.47	0.113712		0.00788798
2028.56	0.110081		0.00776999
2038.71	0.113646		0.00789759
2048.9	0.113823		0.00794849
2059.14	0.131888		0.00856442
2069.44	0.113424		0.00792684
2079.79	0.122085		0.00822759
2090.19	0.122714		0.00824988
2100.64	0.114414		0.00798713
2111.14	0.112532		0.00793726
2121.7	0.108075		0.00776705
2132.3	0.105571		0.00769278
2142.97	0.110758		0.00786903
2153.68	0.107507		0.00774763
2164.45	0.101388		0.00754927
2175.27	0.108158		0.00781184
2186.15	0.100457		0.00753517
2197.08	0.105558		0.00771927
2208.06	0.10126		0.0075511
2219.1	0.0985122		0.00747937
2230.2	0.0976971		0.00747961
2241.35	0.0977288		0.00748452
2252.56	0.0946926		0.00734016
2263.82	0.092476		0.00727831
2275.14	0.0812808		0.00683032
2286.51	0.0866748		0.007059
2297.95	0.0904643		0.00722402
2309.44	0.080069		0.00677951
2320.98	0.0733317		0.00652132
2332.59	0.079909		0.00680018
2344.25	0.0858971		0.00706309
2355.97	0.0700134		0.00637938
2367.75	0.063254		0.0060709
2379.59	0.0696003		0.00640588
2391.49	0.0730088		0.00654627
2403.45	0.0619872		0.00604121
2415.46	0.0650259		0.00620717
2427.54	0.0641158		0.00616076
2439.68	0.058081		0.00585601
2451.88	0.0637391		0.00615075
2464.14	0.0609242		0.00601339
2476.46	0.0538951		0.00569483
2488.84	0.0672385		0.00636265
2501.28	0.0613507		0.00606486
2513.79	0.0563857		0.00581772
2526.36	0.0530256		0.00564972
2538.99	0.0570498		0.00586607
2551.69	0.0536799		0.00568985
2564.44	0.0573963		0.00586865
2577.27	0.0643613		0.00624629
2590.15	0.058287		0.0059284
2603.1	0.0596678		0.00602685
2616.12	0.0591248		0.00598688
2629.2	0.0610931		0.00608873
2642.35	0.0538846		0.00572748
2655.56	0.0537071		0.00574516
2668.84	0.0565576		0.00587954
2682.18	0.0569519		0.00590699
2695.59	0.0542151		0.0057741
2709.07	0.0680244		0.00644565
2722.61	0.0666292		0.00640569
2736.23	0.0579916		0.00599116
2749.91	0.0667917		0.0064376
2763.66	0.0612341		0.00617615
2777.48	0.0476537		0.00544634
2791.36	0.0591104		0.00607164
2805.32	0.0734007		0.0067565
2819.35	0.0792043		0.00703061
2833.44	0.0756179		0.00685512
2847.61	0.0717863		0.00669876
2861.85	0.0729889		0.00675509
2876.16	0.079068		0.00704448
2890.54	0.0735557		0.00680904
2904.99	0.0796186		0.00706944
2919.52	0.0835332		0.00724137
2934.11	0.0734895		0.00684409
2948.78	0.0738604		0.00683219
2963.53	0.0784012		0.00704346
2978.35	0.0788638		0.00707857
2993.24	0.0702184		0.00670673
3008.2	0.0746303		0.00690381
3023.25	0.0797546		0.00712818
3038.36	0.0826025		0.00727233
3053.55	0.0821897		0.0072611
3068.82	0.0806561		0.00717961
3084.17	0.0771891		0.00702151
3099.59	0.0765643		0.00702565
3115.08	0.0781493		0.0070934
3130.66	0.0772605		0.00707464
3146.31	0.0712587		0.00680669
3162.04	0.0774057		0.00708933
3177.85	0.0777252		0.00709723
3193.74	0.072693		0.00689313
3209.71	0.0723454		0.00686783
3225.76	0.0780243		0.00715805
3241.89	0.0727598		0.00689975
3258.1	0.0738258		0.00697569
3274.39	0.0722174		0.00692188
3290.76	0.0691389		0.0067333
3307.22	0.0725911		0.00689219
3323.75	0.0791857		0.00724727
3340.37	0.0856647		0.00753615
3357.07	0.0792913		0.00724639
3373.86	0.0669932		0.00665404
3390.73	0.0715519		0.00690838
3407.68	0.0743215		0.0070805
3424.72	0.0653802		0.00663039
3441.84	0.0707537		0.00688325
3459.05	0.0677992		0.00679047
3476.35	0.0554868		0.00616526
3493.73	0.0584985		0.00631019
3511.2	0.0515314		0.00593382
3528.75	0.0570779		0.00624331
3546.4	0.0640544		0.00662884
3564.13	0.0689634		0.00689818
3581.95	0.0640456		0.00665736
3599.86	0.0723815		0.00706154
3617.86	0.0704982		0.00697725
3635.95	0.0668655		0.00678031
3654.13	0.0665202		0.00676724
3672.4	0.0671476		0.00684019
3690.76	0.0678085		0.00687302
3709.21	0.0641151		0.00667957
3727.76	0.0581005		0.00638867
3746.4	0.0581175		0.00641712
3765.13	0.0591694		0.0064409
3783.96	0.0577618		0.00638302
3802.88	0.0779622		0.0074308
3821.89	0.0704914		0.00707044
3841  	0.0686404		0.00699242
3860.21	0.0593029		0.00652468
3879.51	0.0673989		0.00695269
3898.9	0.0711423		0.00715396
3918.4	0.0659317		0.00687414
3937.99	0.064055		0.0067932
3957.68	0.0665667		0.00695105
3977.47	0.071642		0.00723431
3997.36	0.0765018		0.00748341
4017.34	0.0727389		0.00840932
